SOURCES 4D Calculation
<<<<<<<<<<<>>>>>>>>>>>


 Title: Sample 5 - Po-Be Interface Experiment (Speck, 1944)                          
 Neutron Source Spectra in Columnar Format.
 Examine other tape files for additional information.
 Recall the Energy values are bin bounds.


           Normalized Total (neutrons/sec-cm^2)
           ========================================
 Energy     (a,n)
 ---------  ---------
 2.000E-01  2.727E-04
 4.000E-01  2.396E-03
 6.000E-01  8.244E-03
 8.000E-01  1.046E-02
 1.000E+00  1.075E-02
 1.200E+00  1.064E-02
 1.400E+00  9.613E-03
 1.600E+00  6.859E-03
 1.800E+00  7.724E-03
 2.000E+00  2.265E-02
 2.200E+00  3.029E-02
 2.400E+00  3.616E-02
 2.600E+00  4.038E-02
 2.800E+00  4.763E-02
 3.000E+00  5.405E-02
 3.200E+00  4.926E-02
 3.400E+00  4.132E-02
 3.600E+00  3.742E-02
 3.800E+00  3.398E-02
 4.000E+00  2.963E-02
 4.200E+00  2.659E-02
 4.400E+00  2.443E-02
 4.600E+00  2.239E-02
 4.800E+00  2.031E-02
 5.000E+00  1.811E-02
 5.200E+00  1.371E-02
 5.400E+00  9.771E-03
 5.600E+00  9.398E-03
 5.800E+00  1.468E-02
 6.000E+00  1.684E-02
 6.200E+00  1.848E-02
 6.400E+00  2.256E-02
 6.600E+00  2.466E-02
 6.800E+00  2.514E-02
 7.000E+00  2.515E-02
 7.200E+00  2.511E-02
 7.400E+00  2.502E-02
 7.600E+00  2.459E-02
 7.800E+00  2.297E-02
 8.000E+00  2.047E-02
 8.200E+00  1.736E-02
 8.400E+00  1.452E-02
 8.600E+00  1.263E-02
 8.800E+00  1.134E-02
 9.000E+00  1.048E-02
 9.200E+00  9.725E-03
 9.400E+00  8.420E-03
 9.600E+00  6.459E-03
 9.800E+00  4.298E-03
 1.000E+01  2.490E-03
 1.020E+01  1.344E-03
 1.040E+01  6.722E-04
 1.060E+01  2.843E-04
 1.080E+01  6.675E-05
 1.100E+01  3.092E-06
 1.120E+01  0.000E+00
 1.140E+01  0.000E+00
 1.160E+01  0.000E+00
 1.180E+01  0.000E+00
 1.200E+01  0.000E+00
 Total      1.000E+00

            Absolute Total (neutrons/sec-cm^2)
           ========================================
 Energy     (a,n)
 ---------  ---------
 2.000E-01  3.672E+03
 4.000E-01  3.227E+04
 6.000E-01  1.110E+05
 8.000E-01  1.408E+05
 1.000E+00  1.448E+05
 1.200E+00  1.433E+05
 1.400E+00  1.295E+05
 1.600E+00  9.238E+04
 1.800E+00  1.040E+05
 2.000E+00  3.051E+05
 2.200E+00  4.080E+05
 2.400E+00  4.870E+05
 2.600E+00  5.439E+05
 2.800E+00  6.415E+05
 3.000E+00  7.279E+05
 3.200E+00  6.634E+05
 3.400E+00  5.565E+05
 3.600E+00  5.040E+05
 3.800E+00  4.577E+05
 4.000E+00  3.991E+05
 4.200E+00  3.581E+05
 4.400E+00  3.290E+05
 4.600E+00  3.015E+05
 4.800E+00  2.736E+05
 5.000E+00  2.440E+05
 5.200E+00  1.847E+05
 5.400E+00  1.316E+05
 5.600E+00  1.266E+05
 5.800E+00  1.977E+05
 6.000E+00  2.269E+05
 6.200E+00  2.489E+05
 6.400E+00  3.038E+05
 6.600E+00  3.321E+05
 6.800E+00  3.386E+05
 7.000E+00  3.387E+05
 7.200E+00  3.382E+05
 7.400E+00  3.370E+05
 7.600E+00  3.311E+05
 7.800E+00  3.094E+05
 8.000E+00  2.757E+05
 8.200E+00  2.338E+05
 8.400E+00  1.956E+05
 8.600E+00  1.701E+05
 8.800E+00  1.527E+05
 9.000E+00  1.411E+05
 9.200E+00  1.310E+05
 9.400E+00  1.134E+05
 9.600E+00  8.699E+04
 9.800E+00  5.788E+04
 1.000E+01  3.354E+04
 1.020E+01  1.810E+04
 1.040E+01  9.054E+03
 1.060E+01  3.829E+03
 1.080E+01  8.991E+02
 1.100E+01  4.164E+01
 1.120E+01  0.000E+00
 1.140E+01  0.000E+00
 1.160E+01  0.000E+00
 1.180E+01  0.000E+00
 1.200E+01  0.000E+00
 Total      1.347E+07
