SOURCES 4D Calculation
<<<<<<<<<<<>>>>>>>>>>>


 Title: Sample 4 - Po-B4C Interface Experiment (Perlman, 1944)                       
 Neutron Source Spectra in Columnar Format.
 Examine other tape files for additional information.
 Recall the Energy values are bin bounds.


           Normalized Total (neutrons/sec-cm^2)
           ========================================
 Energy     (a,n)
 ---------  ---------
 2.000E-01  4.793E-03
 4.000E-01  1.005E-02
 6.000E-01  1.306E-02
 8.000E-01  1.451E-02
 1.000E+00  1.462E-02
 1.200E+00  1.478E-02
 1.400E+00  1.797E-02
 1.600E+00  2.636E-02
 1.800E+00  3.894E-02
 2.000E+00  5.688E-02
 2.200E+00  7.603E-02
 2.400E+00  8.991E-02
 2.600E+00  9.578E-02
 2.800E+00  9.319E-02
 3.000E+00  8.659E-02
 3.200E+00  7.886E-02
 3.400E+00  6.959E-02
 3.600E+00  5.861E-02
 3.800E+00  4.674E-02
 4.000E+00  3.519E-02
 4.200E+00  2.487E-02
 4.400E+00  1.614E-02
 4.600E+00  9.231E-03
 4.800E+00  4.367E-03
 5.000E+00  1.593E-03
 5.200E+00  6.004E-04
 5.400E+00  3.640E-04
 5.600E+00  1.940E-04
 5.800E+00  8.758E-05
 6.000E+00  3.392E-05
 6.200E+00  1.953E-05
 6.400E+00  1.748E-05
 6.600E+00  1.304E-05
 6.800E+00  9.462E-06
 7.000E+00  6.599E-06
 7.200E+00  2.454E-06
 7.400E+00  1.988E-07
 7.600E+00  0.000E+00
 7.800E+00  0.000E+00
 8.000E+00  0.000E+00
 8.200E+00  0.000E+00
 8.400E+00  0.000E+00
 8.600E+00  0.000E+00
 8.800E+00  0.000E+00
 9.000E+00  0.000E+00
 9.200E+00  0.000E+00
 9.400E+00  0.000E+00
 9.600E+00  0.000E+00
 9.800E+00  0.000E+00
 1.000E+01  0.000E+00
 Total      1.000E+00

            Absolute Total (neutrons/sec-cm^2)
           ========================================
 Energy     (a,n)
 ---------  ---------
 2.000E-01  1.194E+04
 4.000E-01  2.503E+04
 6.000E-01  3.253E+04
 8.000E-01  3.613E+04
 1.000E+00  3.640E+04
 1.200E+00  3.681E+04
 1.400E+00  4.475E+04
 1.600E+00  6.565E+04
 1.800E+00  9.697E+04
 2.000E+00  1.416E+05
 2.200E+00  1.894E+05
 2.400E+00  2.239E+05
 2.600E+00  2.385E+05
 2.800E+00  2.321E+05
 3.000E+00  2.156E+05
 3.200E+00  1.964E+05
 3.400E+00  1.733E+05
 3.600E+00  1.460E+05
 3.800E+00  1.164E+05
 4.000E+00  8.765E+04
 4.200E+00  6.195E+04
 4.400E+00  4.021E+04
 4.600E+00  2.299E+04
 4.800E+00  1.088E+04
 5.000E+00  3.966E+03
 5.200E+00  1.495E+03
 5.400E+00  9.066E+02
 5.600E+00  4.832E+02
 5.800E+00  2.181E+02
 6.000E+00  8.448E+01
 6.200E+00  4.863E+01
 6.400E+00  4.353E+01
 6.600E+00  3.249E+01
 6.800E+00  2.357E+01
 7.000E+00  1.644E+01
 7.200E+00  6.112E+00
 7.400E+00  4.951E-01
 7.600E+00  0.000E+00
 7.800E+00  0.000E+00
 8.000E+00  0.000E+00
 8.200E+00  0.000E+00
 8.400E+00  0.000E+00
 8.600E+00  0.000E+00
 8.800E+00  0.000E+00
 9.000E+00  0.000E+00
 9.200E+00  0.000E+00
 9.400E+00  0.000E+00
 9.600E+00  0.000E+00
 9.800E+00  0.000E+00
 1.000E+01  0.000E+00
 Total      2.491E+06
